# author : Oliver Czoske
# source : Ester Aranzana
# date_created : 2017-11-20
# date_modified: 2025-12-16
# status: Measured at 80 K
# wavelength_unit : um
# changes :
# - 2022-03-17 (KL) Updated to match Ric Davies' email
# - 2023-06-06 (RD) Modified profiles after discussion with Schott
# - 2025-06-16 (FH) Updated filter curve based on Ric Davies' email.
# - 2025-12-16 (OC) Replaced with measured values
#
 wavelength  transmission
     0.4990      0.011680
     0.4995      0.011680
     0.5000      0.010150
     0.5005      0.029500
     0.5010      0.014100
     0.5015      0.016370
     0.5020      0.011470
     0.5025      0.014650
     0.5030      0.016220
     0.5035      0.023260
     0.5040      0.010170
     0.5045      0.012080
     0.5050      0.015530
     0.5055      0.004540
     0.5060      0.005870
     0.5065      0.005890
     0.5070      0.011140
     0.5075      0.006510
     0.5080      0.000760
     0.5085      0.000380
     0.5090      0.024000
     0.5095      0.000000
     0.5100      0.010530
     0.5105      0.019760
     0.5110      0.000000
     0.5115      0.000000
     0.5120      0.022710
     0.5125      0.018420
     0.5130      0.000000
     0.5135      0.000000
     0.5140      0.004820
     0.5145      0.012200
     0.5150      0.000530
     0.5155      0.002150
     0.5160      0.002880
     0.5165      0.000000
     0.5170      0.001360
     0.5175      0.003940
     0.5180      0.000000
     0.5185      0.000000
     0.5190      0.001990
     0.5195      0.007920
     0.5200      0.001830
     0.5205      0.000000
     0.5210      0.008100
     0.5215      0.000000
     0.5220      0.000000
     0.5225      0.000000
     0.5230      0.000000
     0.5235      0.000000
     0.5240      0.000000
     0.5245      0.000420
     0.5250      0.000000
     0.5255      0.000000
     0.5260      0.001650
     0.5265      0.000000
     0.5270      0.000000
     0.5275      0.000000
     0.5280      0.000000
     0.5285      0.000000
     0.5290      0.000000
     0.5295      0.001750
     0.5300      0.000000
     0.5305      0.000000
     0.5310      0.000000
     0.5315      0.000000
     0.5320      0.000000
     0.5325      0.000000
     0.5330      0.000000
     0.5335      0.000000
     0.5340      0.000000
     0.5345      0.001160
     0.5350      0.000000
     0.5355      0.000000
     0.5360      0.000000
     0.5365      0.000000
     0.5370      0.000380
     0.5375      0.003550
     0.5380      0.000000
     0.5385      0.000000
     0.5390      0.000000
     0.5395      0.000000
     0.5400      0.000000
     0.5405      0.000000
     0.5410      0.000000
     0.5415      0.000000
     0.5420      0.000000
     0.5425      0.000000
     0.5430      0.000000
     0.5435      0.000000
     0.5440      0.000000
     0.5445      0.000000
     0.5450      0.000000
     0.5455      0.000000
     0.5460      0.000000
     0.5465      0.000000
     0.5470      0.000000
     0.5475      0.000000
     0.5480      0.000000
     0.5485      0.000000
     0.5490      0.000000
     0.5495      0.000000
     0.5500      0.000000
     0.5505      0.000000
     0.5510      0.000530
     0.5515      0.000000
     0.5520      0.000000
     0.5525      0.000620
     0.5530      0.000000
     0.5535      0.000000
     0.5540      0.000000
     0.5545      0.000000
     0.5550      0.000000
     0.5555      0.015570
     0.5560      0.122220
     0.5565      0.014400
     0.5570      0.001150
     0.5575      0.002910
     0.5580      0.000290
     0.5585      0.001160
     0.5590      0.000000
     0.5595      0.000000
     0.5600      0.000000
     0.5605      0.000440
     0.5610      0.000150
     0.5615      0.001130
     0.5620      0.000140
     0.5625      0.000000
     0.5630      0.000160
     0.5635      0.002590
     0.5640      0.002390
     0.5645      0.002960
     0.5650      0.003730
     0.5655      0.018080
     0.5660      0.132590
     0.5665      0.205620
     0.5670      0.034640
     0.5675      0.014430
     0.5680      0.007260
     0.5685      0.010070
     0.5690      0.007390
     0.5695      0.008480
     0.5700      0.007240
     0.5705      0.008730
     0.5710      0.012950
     0.5715      0.017690
     0.5720      0.026150
     0.5725      0.037610
     0.5730      0.049720
     0.5735      0.059930
     0.5740      0.062570
     0.5745      0.060980
     0.5750      0.057480
     0.5755      0.054150
     0.5760      0.053250
     0.5765      0.051800
     0.5770      0.053800
     0.5775      0.056280
     0.5780      0.066140
     0.5785      0.084410
     0.5790      0.103070
     0.5795      0.086940
     0.5800      0.052350
     0.5805      0.029910
     0.5810      0.015990
     0.5815      0.010320
     0.5820      0.007060
     0.5825      0.006150
     0.5830      0.004680
     0.5835      0.003330
     0.5840      0.003320
     0.5845      0.002260
     0.5850      0.002650
     0.5855      0.002630
     0.5860      0.002800
     0.5865      0.003900
     0.5870      0.004340
     0.5875      0.005750
     0.5880      0.008140
     0.5885      0.011650
     0.5890      0.017980
     0.5895      0.025990
     0.5900      0.031390
     0.5905      0.035860
     0.5910      0.037840
     0.5915      0.039580
     0.5920      0.046840
     0.5925      0.057140
     0.5930      0.069970
     0.5935      0.080270
     0.5940      0.083480
     0.5945      0.079630
     0.5950      0.064370
     0.5955      0.043500
     0.5960      0.027690
     0.5965      0.018320
     0.5970      0.012860
     0.5975      0.009160
     0.5980      0.006360
     0.5985      0.004700
     0.5990      0.003020
     0.5995      0.003230
     0.6000      0.001580
     0.6005      0.003230
     0.6010      0.003270
     0.6015      0.004510
     0.6020      0.004350
     0.6025      0.004140
     0.6030      0.004950
     0.6035      0.006090
     0.6040      0.009950
     0.6045      0.017370
     0.6050      0.032310
     0.6055      0.051040
     0.6060      0.060550
     0.6065      0.064530
     0.6070      0.070450
     0.6075      0.083710
     0.6080      0.101600
     0.6085      0.099500
     0.6090      0.074550
     0.6095      0.053840
     0.6100      0.041710
     0.6105      0.037540
     0.6110      0.035620
     0.6115      0.034380
     0.6120      0.032120
     0.6125      0.030320
     0.6130      0.028200
     0.6135      0.026940
     0.6140      0.024540
     0.6145      0.020530
     0.6150      0.017040
     0.6155      0.015000
     0.6160      0.015270
     0.6165      0.015640
     0.6170      0.016260
     0.6175      0.014700
     0.6180      0.011430
     0.6185      0.009480
     0.6190      0.008290
     0.6195      0.009190
     0.6200      0.011330
     0.6205      0.013100
     0.6210      0.012970
     0.6215      0.012190
     0.6220      0.011890
     0.6225      0.014730
     0.6230      0.023400
     0.6235      0.044470
     0.6240      0.074440
     0.6245      0.061850
     0.6250      0.038570
     0.6255      0.027960
     0.6260      0.024350
     0.6265      0.025000
     0.6270      0.028200
     0.6275      0.033580
     0.6280      0.037180
     0.6285      0.035380
     0.6290      0.027060
     0.6295      0.018420
     0.6300      0.013190
     0.6305      0.012680
     0.6310      0.015930
     0.6315      0.021390
     0.6320      0.013360
     0.6325      0.005310
     0.6330      0.000090
     0.6335      0.002240
     0.6340      0.001440
     0.6345      0.000460
     0.6350      0.000160
     0.6355      0.000000
     0.6360      0.000300
     0.6365      0.000000
     0.6370      0.000000
     0.6375      0.000000
     0.6380      0.000000
     0.6385      0.000000
     0.6390      0.000000
     0.6395      0.000000
     0.6400      0.000000
     0.6405      0.000000
     0.6410      0.000000
     0.6415      0.000000
     0.6420      0.000000
     0.6425      0.000000
     0.6430      0.000000
     0.6435      0.000000
     0.6440      0.000000
     0.6445      0.000000
     0.6450      0.000000
     0.6455      0.000000
     0.6460      0.000000
     0.6465      0.000000
     0.6470      0.000000
     0.6475      0.000000
     0.6480      0.000000
     0.6485      0.000000
     0.6490      0.000000
     0.6495      0.000000
     0.6500      0.000000
     0.6505      0.000000
     0.6510      0.000000
     0.6515      0.000000
     0.6520      0.000000
     0.6525      0.000000
     0.6530      0.000000
     0.6535      0.000000
     0.6540      0.000000
     0.6545      0.000000
     0.6550      0.000000
     0.6555      0.000000
     0.6560      0.000000
     0.6565      0.000000
     0.6570      0.000000
     0.6575      0.000000
     0.6580      0.000000
     0.6585      0.000000
     0.6590      0.000000
     0.6595      0.000000
     0.6600      0.000000
     0.6605      0.000000
     0.6610      0.000000
     0.6615      0.000000
     0.6620      0.000000
     0.6625      0.000000
     0.6630      0.000000
     0.6635      0.000000
     0.6640      0.000000
     0.6645      0.000000
     0.6650      0.000000
     0.6655      0.000000
     0.6660      0.000000
     0.6665      0.000030
     0.6670      0.000170
     0.6675      0.000040
     0.6680      0.000180
     0.6685      0.000300
     0.6690      0.000240
     0.6695      0.000250
     0.6700      0.000460
     0.6705      0.000710
     0.6710      0.000410
     0.6715      0.000620
     0.6720      0.000670
     0.6725      0.000630
     0.6730      0.000630
     0.6735      0.000730
     0.6740      0.000370
     0.6745      0.000540
     0.6750      0.000750
     0.6755      0.000580
     0.6760      0.000750
     0.6765      0.000570
     0.6770      0.000660
     0.6775      0.000680
     0.6780      0.000450
     0.6785      0.000570
     0.6790      0.000310
     0.6795      0.000840
     0.6800      0.000700
     0.6805      0.000420
     0.6810      0.000550
     0.6815      0.000680
     0.6820      0.000760
     0.6825      0.000720
     0.6830      0.000740
     0.6835      0.000750
     0.6840      0.000750
     0.6845      0.000770
     0.6850      0.000680
     0.6855      0.000620
     0.6860      0.000730
     0.6865      0.000520
     0.6870      0.000760
     0.6875      0.000740
     0.6880      0.001040
     0.6885      0.000940
     0.6890      0.000760
     0.6895      0.000550
     0.6900      0.000640
     0.6905      0.000310
     0.6910      0.000000
     0.6915      0.000000
     0.6920      0.000000
     0.6925      0.000000
     0.6930      0.000000
     0.6935      0.000000
     0.6940      0.000000
     0.6945      0.000900
     0.6950      0.001950
     0.6955      0.002630
     0.6960      0.002930
     0.6965      0.003100
     0.6970      0.003510
     0.6975      0.003930
     0.6980      0.004430
     0.6985      0.004710
     0.6990      0.004520
     0.6995      0.004290
     0.7000      0.004770
     0.7005      0.004830
     0.7010      0.004900
     0.7015      0.004990
     0.7020      0.005160
     0.7025      0.004990
     0.7030      0.005430
     0.7035      0.005370
     0.7040      0.005310
     0.7045      0.005530
     0.7050      0.005350
     0.7055      0.005450
     0.7060      0.005520
     0.7065      0.005540
     0.7070      0.005190
     0.7075      0.005310
     0.7080      0.005250
     0.7085      0.005230
     0.7090      0.005140
     0.7095      0.005010
     0.7100      0.004900
     0.7105      0.004910
     0.7110      0.005000
     0.7115      0.005040
     0.7120      0.004850
     0.7125      0.004820
     0.7130      0.004470
     0.7135      0.004580
     0.7140      0.004610
     0.7145      0.004370
     0.7150      0.004570
     0.7155      0.004590
     0.7160      0.004580
     0.7165      0.004230
     0.7170      0.004370
     0.7175      0.004320
     0.7180      0.004050
     0.7185      0.004030
     0.7190      0.004040
     0.7195      0.003830
     0.7200      0.003690
     0.7205      0.003600
     0.7210      0.003500
     0.7215      0.003700
     0.7220      0.003560
     0.7225      0.003630
     0.7230      0.003470
     0.7235      0.003450
     0.7240      0.003200
     0.7245      0.003250
     0.7250      0.003160
     0.7255      0.002930
     0.7260      0.002740
     0.7265      0.002600
     0.7270      0.002510
     0.7275      0.002330
     0.7280      0.002140
     0.7285      0.002340
     0.7290      0.002150
     0.7295      0.002200
     0.7300      0.001990
     0.7305      0.001990
     0.7310      0.001590
     0.7315      0.001310
     0.7320      0.001090
     0.7325      0.001040
     0.7330      0.000860
     0.7335      0.000740
     0.7340      0.000790
     0.7345      0.000710
     0.7350      0.000800
     0.7355      0.000660
     0.7360      0.000630
     0.7365      0.000580
     0.7370      0.000350
     0.7375      0.000360
     0.7380      0.000240
     0.7385      0.000080
     0.7390      0.000000
     0.7395      0.000050
     0.7400      0.000000
     0.7405      0.000000
     0.7410      0.000000
     0.7415      0.000000
     0.7420      0.000000
     0.7425      0.000000
     0.7430      0.000000
     0.7435      0.000000
     0.7440      0.000000
     0.7445      0.000000
     0.7450      0.000000
     0.7455      0.000000
     0.7460      0.000000
     0.7465      0.000000
     0.7470      0.000000
     0.7475      0.000000
     0.7480      0.000000
     0.7485      0.000000
     0.7490      0.000000
     0.7495      0.000000
     0.7500      0.000000
     0.7505      0.000000
     0.7510      0.000000
     0.7515      0.000000
     0.7520      0.000000
     0.7525      0.000000
     0.7530      0.000000
     0.7535      0.000000
     0.7540      0.000000
     0.7545      0.000000
     0.7550      0.000000
     0.7555      0.000000
     0.7560      0.000000
     0.7565      0.000000
     0.7570      0.000000
     0.7575      0.000000
     0.7580      0.000000
     0.7585      0.000000
     0.7590      0.000000
     0.7595      0.000000
     0.7600      0.000000
     0.7605      0.000000
     0.7610      0.000000
     0.7615      0.000000
     0.7620      0.000000
     0.7625      0.000000
     0.7630      0.000000
     0.7635      0.000000
     0.7640      0.000000
     0.7645      0.000000
     0.7650      0.000000
     0.7655      0.000000
     0.7660      0.000000
     0.7665      0.000000
     0.7670      0.000000
     0.7675      0.000000
     0.7680      0.000000
     0.7685      0.000000
     0.7690      0.000000
     0.7695      0.000000
     0.7700      0.000000
     0.7705      0.000000
     0.7710      0.000000
     0.7715      0.000000
     0.7720      0.000000
     0.7725      0.000000
     0.7730      0.000000
     0.7735      0.000000
     0.7740      0.000000
     0.7745      0.000000
     0.7750      0.000000
     0.7755      0.000000
     0.7760      0.000000
     0.7765      0.000000
     0.7770      0.000000
     0.7775      0.000000
     0.7780      0.000000
     0.7785      0.000000
     0.7790      0.000000
     0.7795      0.000000
     0.7800      0.000000
     0.7805      0.000000
     0.7810      0.000000
     0.7815      0.000000
     0.7820      0.000000
     0.7825      0.000000
     0.7830      0.000000
     0.7835      0.000000
     0.7840      0.000000
     0.7845      0.000000
     0.7850      0.000000
     0.7855      0.000000
     0.7860      0.000000
     0.7865      0.000000
     0.7870      0.000000
     0.7875      0.000000
     0.7880      0.000000
     0.7885      0.000000
     0.7890      0.000000
     0.7895      0.000000
     0.7900      0.000000
     0.7905      0.000000
     0.7910      0.000000
     0.7915      0.000000
     0.7920      0.000000
     0.7925      0.000170
     0.7930      0.000620
     0.7935      0.000900
     0.7940      0.000820
     0.7945      0.000480
     0.7950      0.000920
     0.7955      0.002280
     0.7960      0.004810
     0.7965      0.009790
     0.7970      0.019770
     0.7975      0.041100
     0.7980      0.088430
     0.7985      0.192210
     0.7990      0.381050
     0.7995      0.591710
     0.8000      0.699590
     0.8005      0.717890
     0.8010      0.716060
     0.8015      0.721420
     0.8020      0.736690
     0.8025      0.757350
     0.8030      0.779200
     0.8035      0.799620
     0.8040      0.818340
     0.8045      0.835430
     0.8050      0.851700
     0.8055      0.866980
     0.8060      0.880420
     0.8065      0.890870
     0.8070      0.897200
     0.8075      0.898760
     0.8080      0.895530
     0.8085      0.888270
     0.8090      0.879150
     0.8095      0.870540
     0.8100      0.863470
     0.8105      0.859480
     0.8110      0.859600
     0.8115      0.863420
     0.8120      0.870410
     0.8125      0.879720
     0.8130      0.890260
     0.8135      0.900150
     0.8140      0.908950
     0.8145      0.915370
     0.8150      0.919760
     0.8155      0.921830
     0.8160      0.922370
     0.8165      0.922480
     0.8170      0.922360
     0.8175      0.922530
     0.8180      0.923340
     0.8185      0.924600
     0.8190      0.926240
     0.8195      0.927740
     0.8200      0.928790
     0.8205      0.930100
     0.8210      0.931170
     0.8215      0.932300
     0.8220      0.933710
     0.8225      0.935370
     0.8230      0.937540
     0.8235      0.939790
     0.8240      0.941700
     0.8245      0.943600
     0.8250      0.945030
     0.8255      0.945720
     0.8260      0.945910
     0.8265      0.945350
     0.8270      0.944940
     0.8275      0.944030
     0.8280      0.943210
     0.8285      0.942600
     0.8290      0.941780
     0.8295      0.940590
     0.8300      0.939310
     0.8305      0.937670
     0.8310      0.935690
     0.8315      0.933600
     0.8320      0.931640
     0.8325      0.929850
     0.8330      0.928760
     0.8335      0.928200
     0.8340      0.928110
     0.8345      0.928720
     0.8350      0.929350
     0.8355      0.930000
     0.8360      0.930420
     0.8365      0.930410
     0.8370      0.930240
     0.8375      0.929920
     0.8380      0.929670
     0.8385      0.929730
     0.8390      0.930490
     0.8395      0.931610
     0.8400      0.933200
     0.8405      0.934660
     0.8410      0.936120
     0.8415      0.936480
     0.8420      0.935690
     0.8425      0.934030
     0.8430      0.931350
     0.8435      0.928370
     0.8440      0.925560
     0.8445      0.923410
     0.8450      0.922720
     0.8455      0.923570
     0.8460      0.925970
     0.8465      0.929710
     0.8470      0.933870
     0.8475      0.937850
     0.8480      0.941180
     0.8485      0.942770
     0.8490      0.942490
     0.8495      0.940560
     0.8500      0.937150
     0.8505      0.933110
     0.8510      0.928980
     0.8515      0.925880
     0.8520      0.924320
     0.8525      0.924500
     0.8530      0.926440
     0.8535      0.929670
     0.8540      0.933710
     0.8545      0.937640
     0.8550      0.940610
     0.8555      0.942160
     0.8560      0.942460
     0.8565      0.940720
     0.8570      0.937970
     0.8575      0.934730
     0.8580      0.931470
     0.8585      0.928560
     0.8590      0.926700
     0.8595      0.925920
     0.8600      0.926010
     0.8605      0.926820
     0.8610      0.927840
     0.8615      0.928720
     0.8620      0.929360
     0.8625      0.929250
     0.8630      0.928630
     0.8635      0.927770
     0.8640      0.926940
     0.8645      0.926500
     0.8650      0.926620
     0.8655      0.927670
     0.8660      0.929680
     0.8665      0.932520
     0.8670      0.935690
     0.8675      0.938990
     0.8680      0.942150
     0.8685      0.944630
     0.8690      0.946310
     0.8695      0.947120
     0.8700      0.947170
     0.8705      0.946720
     0.8710      0.946490
     0.8715      0.946360
     0.8720      0.946790
     0.8725      0.947780
     0.8730      0.949280
     0.8735      0.951110
     0.8740      0.952800
     0.8745      0.954470
