# author : Oliver Czoske
# source : Ester Aranzana
# date_created : 2017-11-20
# date_modified: 2025-12-16
# status: Measured at 80 K
# wavelength_unit : um
# changes :
# - 2022-03-17 (KL) Updated to match Ric Davies' email
# - 2023-06-06 (RD) Modified profiles after discussion with Schott
# - 2025-06-16 (FH) Updated filter curve based on Ric Davies' email.
# - 2025-12-16 (OC) Replaced with measured values
#
 wavelength  transmission
     0.4990      0.027850
     0.4995      0.027850
     0.5000      0.028860
     0.5005      0.018930
     0.5010      0.014840
     0.5015      0.000160
     0.5020      0.007150
     0.5025      0.003830
     0.5030      0.016440
     0.5035      0.017140
     0.5040      0.022450
     0.5045      0.028260
     0.5050      0.007970
     0.5055      0.002770
     0.5060      0.000000
     0.5065      0.006440
     0.5070      0.009130
     0.5075      0.015590
     0.5080      0.014670
     0.5085      0.017970
     0.5090      0.011140
     0.5095      0.009480
     0.5100      0.000680
     0.5105      0.001710
     0.5110      0.007470
     0.5115      0.006410
     0.5120      0.000000
     0.5125      0.001620
     0.5130      0.000450
     0.5135      0.008850
     0.5140      0.008900
     0.5145      0.007750
     0.5150      0.001810
     0.5155      0.000000
     0.5160      0.008120
     0.5165      0.006560
     0.5170      0.003020
     0.5175      0.009620
     0.5180      0.007960
     0.5185      0.002540
     0.5190      0.011020
     0.5195      0.012440
     0.5200      0.008930
     0.5205      0.014120
     0.5210      0.008970
     0.5215      0.006330
     0.5220      0.013950
     0.5225      0.007810
     0.5230      0.004110
     0.5235      0.008120
     0.5240      0.008930
     0.5245      0.009670
     0.5250      0.008660
     0.5255      0.006510
     0.5260      0.012430
     0.5265      0.005580
     0.5270      0.005900
     0.5275      0.004220
     0.5280      0.006570
     0.5285      0.006130
     0.5290      0.012040
     0.5295      0.000000
     0.5300      0.005640
     0.5305      0.003210
     0.5310      0.009760
     0.5315      0.009800
     0.5320      0.003950
     0.5325      0.005460
     0.5330      0.004130
     0.5335      0.000000
     0.5340      0.003360
     0.5345      0.000110
     0.5350      0.003200
     0.5355      0.000000
     0.5360      0.000000
     0.5365      0.000000
     0.5370      0.000000
     0.5375      0.000270
     0.5380      0.002870
     0.5385      0.002550
     0.5390      0.005180
     0.5395      0.005770
     0.5400      0.004250
     0.5405      0.002910
     0.5410      0.000890
     0.5415      0.005050
     0.5420      0.006500
     0.5425      0.006660
     0.5430      0.008830
     0.5435      0.004580
     0.5440      0.003590
     0.5445      0.006280
     0.5450      0.005060
     0.5455      0.005820
     0.5460      0.004730
     0.5465      0.006180
     0.5470      0.006750
     0.5475      0.006330
     0.5480      0.005090
     0.5485      0.005730
     0.5490      0.006150
     0.5495      0.003920
     0.5500      0.006250
     0.5505      0.005630
     0.5510      0.004160
     0.5515      0.006370
     0.5520      0.004280
     0.5525      0.002570
     0.5530      0.005130
     0.5535      0.002930
     0.5540      0.004600
     0.5545      0.002290
     0.5550      0.003790
     0.5555      0.001390
     0.5560      0.002980
     0.5565      0.003790
     0.5570      0.002160
     0.5575      0.002440
     0.5580      0.000350
     0.5585      0.000600
     0.5590      0.000810
     0.5595      0.000880
     0.5600      0.000670
     0.5605      0.000530
     0.5610      0.000930
     0.5615      0.002000
     0.5620      0.001500
     0.5625      0.003510
     0.5630      0.002020
     0.5635      0.001100
     0.5640      0.003830
     0.5645      0.002380
     0.5650      0.004350
     0.5655      0.004670
     0.5660      0.004250
     0.5665      0.004720
     0.5670      0.002400
     0.5675      0.003640
     0.5680      0.006090
     0.5685      0.006290
     0.5690      0.007200
     0.5695      0.006980
     0.5700      0.008490
     0.5705      0.008790
     0.5710      0.009840
     0.5715      0.006640
     0.5720      0.004730
     0.5725      0.004930
     0.5730      0.004910
     0.5735      0.006850
     0.5740      0.009070
     0.5745      0.012060
     0.5750      0.013610
     0.5755      0.013850
     0.5760      0.011900
     0.5765      0.009370
     0.5770      0.005640
     0.5775      0.001020
     0.5780      0.000000
     0.5785      0.000000
     0.5790      0.001660
     0.5795      0.006750
     0.5800      0.012790
     0.5805      0.018480
     0.5810      0.020380
     0.5815      0.021730
     0.5820      0.021790
     0.5825      0.019640
     0.5830      0.016340
     0.5835      0.013300
     0.5840      0.010420
     0.5845      0.008540
     0.5850      0.005740
     0.5855      0.007610
     0.5860      0.007300
     0.5865      0.007870
     0.5870      0.008810
     0.5875      0.008710
     0.5880      0.009640
     0.5885      0.008660
     0.5890      0.007750
     0.5895      0.007780
     0.5900      0.006900
     0.5905      0.006930
     0.5910      0.007080
     0.5915      0.006690
     0.5920      0.006340
     0.5925      0.007040
     0.5930      0.006260
     0.5935      0.007850
     0.5940      0.006000
     0.5945      0.005160
     0.5950      0.005620
     0.5955      0.005100
     0.5960      0.004960
     0.5965      0.004200
     0.5970      0.004640
     0.5975      0.004340
     0.5980      0.003550
     0.5985      0.003520
     0.5990      0.004610
     0.5995      0.003870
     0.6000      0.004080
     0.6005      0.003510
     0.6010      0.003170
     0.6015      0.002600
     0.6020      0.002930
     0.6025      0.002850
     0.6030      0.002370
     0.6035      0.002670
     0.6040      0.002240
     0.6045      0.001800
     0.6050      0.001600
     0.6055      0.001560
     0.6060      0.001670
     0.6065      0.001520
     0.6070      0.001160
     0.6075      0.001170
     0.6080      0.001240
     0.6085      0.000890
     0.6090      0.000730
     0.6095      0.000670
     0.6100      0.000490
     0.6105      0.000500
     0.6110      0.000040
     0.6115      0.000110
     0.6120      0.000000
     0.6125      0.000440
     0.6130      0.000000
     0.6135      0.000320
     0.6140      0.000000
     0.6145      0.000430
     0.6150      0.000390
     0.6155      0.000210
     0.6160      0.000100
     0.6165      0.000360
     0.6170      0.000570
     0.6175      0.000400
     0.6180      0.001170
     0.6185      0.000800
     0.6190      0.000360
     0.6195      0.001070
     0.6200      0.000630
     0.6205      0.000380
     0.6210      0.000600
     0.6215      0.001060
     0.6220      0.001450
     0.6225      0.001010
     0.6230      0.000900
     0.6235      0.000660
     0.6240      0.000800
     0.6245      0.000880
     0.6250      0.000760
     0.6255      0.000980
     0.6260      0.000920
     0.6265      0.000910
     0.6270      0.000660
     0.6275      0.000820
     0.6280      0.000590
     0.6285      0.000730
     0.6290      0.000120
     0.6295      0.000260
     0.6300      0.000000
     0.6305      0.000000
     0.6310      0.000000
     0.6315      0.000390
     0.6320      0.000340
     0.6325      0.001180
     0.6330      0.011400
     0.6335      0.000410
     0.6340      0.000210
     0.6345      0.000190
     0.6350      0.000030
     0.6355      0.000370
     0.6360      0.000550
     0.6365      0.000020
     0.6370      0.000230
     0.6375      0.000890
     0.6380      0.000110
     0.6385      0.000400
     0.6390      0.000410
     0.6395      0.000470
     0.6400      0.000510
     0.6405      0.000180
     0.6410      0.000000
     0.6415      0.000000
     0.6420      0.000000
     0.6425      0.000160
     0.6430      0.000010
     0.6435      0.000200
     0.6440      0.000170
     0.6445      0.000050
     0.6450      0.000490
     0.6455      0.000050
     0.6460      0.000360
     0.6465      0.000060
     0.6470      0.000180
     0.6475      0.000160
     0.6480      0.000490
     0.6485      0.000200
     0.6490      0.000340
     0.6495      0.000400
     0.6500      0.000410
     0.6505      0.000280
     0.6510      0.000210
     0.6515      0.000120
     0.6520      0.000250
     0.6525      0.000590
     0.6530      0.000310
     0.6535      0.000250
     0.6540      0.000400
     0.6545      0.000300
     0.6550      0.000530
     0.6555      0.000310
     0.6560      0.000590
     0.6565      0.000500
     0.6570      0.000420
     0.6575      0.000380
     0.6580      0.000250
     0.6585      0.000000
     0.6590      0.000100
     0.6595      0.000510
     0.6600      0.000200
     0.6605      0.000330
     0.6610      0.000240
     0.6615      0.000250
     0.6620      0.000250
     0.6625      0.000180
     0.6630      0.000320
     0.6635      0.000470
     0.6640      0.000550
     0.6645      0.000240
     0.6650      0.000180
     0.6655      0.000240
     0.6660      0.000340
     0.6665      0.000210
     0.6670      0.000120
     0.6675      0.000430
     0.6680      0.000140
     0.6685      0.000170
     0.6690      0.000360
     0.6695      0.000110
     0.6700      0.000200
     0.6705      0.000500
     0.6710      0.000020
     0.6715      0.000270
     0.6720      0.000000
     0.6725      0.000180
     0.6730      0.000000
     0.6735      0.000040
     0.6740      0.000260
     0.6745      0.000130
     0.6750      0.000350
     0.6755      0.000300
     0.6760      0.000510
     0.6765      0.000670
     0.6770      0.000520
     0.6775      0.000990
     0.6780      0.001370
     0.6785      0.001450
     0.6790      0.001400
     0.6795      0.000950
     0.6800      0.000500
     0.6805      0.000140
     0.6810      0.000000
     0.6815      0.000100
     0.6820      0.000000
     0.6825      0.000080
     0.6830      0.000000
     0.6835      0.000060
     0.6840      0.000170
     0.6845      0.000340
     0.6850      0.000100
     0.6855      0.000260
     0.6860      0.000240
     0.6865      0.000120
     0.6870      0.000220
     0.6875      0.000050
     0.6880      0.000260
     0.6885      0.000000
     0.6890      0.000140
     0.6895      0.000170
     0.6900      0.000230
     0.6905      0.000410
     0.6910      0.000150
     0.6915      0.000380
     0.6920      0.000170
     0.6925      0.000220
     0.6930      0.000170
     0.6935      0.000270
     0.6940      0.000150
     0.6945      0.000530
     0.6950      0.000080
     0.6955      0.000270
     0.6960      0.000100
     0.6965      0.000140
     0.6970      0.000130
     0.6975      0.000110
     0.6980      0.000160
     0.6985      0.000310
     0.6990      0.000210
     0.6995      0.000170
     0.7000      0.000190
     0.7005      0.000320
     0.7010      0.000220
     0.7015      0.000240
     0.7020      0.000070
     0.7025      0.000160
     0.7030      0.000210
     0.7035      0.000130
     0.7040      0.000110
     0.7045      0.000090
     0.7050      0.000130
     0.7055      0.000110
     0.7060      0.000230
     0.7065      0.000030
     0.7070      0.000220
     0.7075      0.000000
     0.7080      0.000100
     0.7085      0.000080
     0.7090      0.000050
     0.7095      0.000020
     0.7100      0.000140
     0.7105      0.000060
     0.7110      0.000010
     0.7115      0.000090
     0.7120      0.000070
     0.7125      0.000000
     0.7130      0.000000
     0.7135      0.000000
     0.7140      0.000080
     0.7145      0.000000
     0.7150      0.000000
     0.7155      0.000030
     0.7160      0.000180
     0.7165      0.000000
     0.7170      0.000010
     0.7175      0.000000
     0.7180      0.000090
     0.7185      0.000080
     0.7190      0.000110
     0.7195      0.000000
     0.7200      0.000010
     0.7205      0.000070
     0.7210      0.000070
     0.7215      0.000010
     0.7220      0.000120
     0.7225      0.000090
     0.7230      0.000050
     0.7235      0.000060
     0.7240      0.000040
     0.7245      0.000200
     0.7250      0.000030
     0.7255      0.000010
     0.7260      0.000030
     0.7265      0.000090
     0.7270      0.000000
     0.7275      0.000100
     0.7280      0.000000
     0.7285      0.000110
     0.7290      0.000000
     0.7295      0.000030
     0.7300      0.000060
     0.7305      0.000100
     0.7310      0.000150
     0.7315      0.000010
     0.7320      0.000130
     0.7325      0.000050
     0.7330      0.000180
     0.7335      0.000100
     0.7340      0.000080
     0.7345      0.000170
     0.7350      0.000140
     0.7355      0.000140
     0.7360      0.000000
     0.7365      0.000160
     0.7370      0.000110
     0.7375      0.000170
     0.7380      0.000050
     0.7385      0.000090
     0.7390      0.000110
     0.7395      0.000150
     0.7400      0.000110
     0.7405      0.000120
     0.7410      0.000150
     0.7415      0.000170
     0.7420      0.000190
     0.7425      0.000160
     0.7430      0.000130
     0.7435      0.000030
     0.7440      0.000040
     0.7445      0.000050
     0.7450      0.000030
     0.7455      0.000040
     0.7460      0.000010
     0.7465      0.000030
     0.7470      0.000100
     0.7475      0.000070
     0.7480      0.000060
     0.7485      0.000060
     0.7490      0.000000
     0.7495      0.000080
     0.7500      0.000020
     0.7505      0.000000
     0.7510      0.000000
     0.7515      0.000120
     0.7520      0.000170
     0.7525      0.000420
     0.7530      0.000440
     0.7535      0.000510
     0.7540      0.000290
     0.7545      0.000340
     0.7550      0.000310
     0.7555      0.000220
     0.7560      0.000160
     0.7565      0.000080
     0.7570      0.000100
     0.7575      0.000200
     0.7580      0.000300
     0.7585      0.000250
     0.7590      0.000400
     0.7595      0.000640
     0.7600      0.001320
     0.7605      0.002600
     0.7610      0.005980
     0.7615      0.007280
     0.7620      0.003360
     0.7625      0.001530
     0.7630      0.000830
     0.7635      0.000560
     0.7640      0.000270
     0.7645      0.000210
     0.7650      0.000150
     0.7655      0.000080
     0.7660      0.000130
     0.7665      0.000010
     0.7670      0.000000
     0.7675      0.000000
     0.7680      0.000030
     0.7685      0.000000
     0.7690      0.000000
     0.7695      0.000060
     0.7700      0.000060
     0.7705      0.000010
     0.7710      0.000010
     0.7715      0.000120
     0.7720      0.000000
     0.7725      0.000000
     0.7730      0.000000
     0.7735      0.000000
     0.7740      0.000180
     0.7745      0.000070
     0.7750      0.000240
     0.7755      0.000130
     0.7760      0.000180
     0.7765      0.000120
     0.7770      0.000110
     0.7775      0.000030
     0.7780      0.000040
     0.7785      0.000010
     0.7790      0.000020
     0.7795      0.000020
     0.7800      0.000060
     0.7805      0.000170
     0.7810      0.000030
     0.7815      0.000110
     0.7820      0.000110
     0.7825      0.000140
     0.7830      0.000120
     0.7835      0.000070
     0.7840      0.000160
     0.7845      0.000050
     0.7850      0.000040
     0.7855      0.000100
     0.7860      0.000080
     0.7865      0.000130
     0.7870      0.000010
     0.7875      0.000000
     0.7880      0.000020
     0.7885      0.000110
     0.7890      0.000080
     0.7895      0.000090
     0.7900      0.000170
     0.7905      0.000100
     0.7910      0.000080
     0.7915      0.000050
     0.7920      0.000070
     0.7925      0.000130
     0.7930      0.000020
     0.7935      0.000080
     0.7940      0.000080
     0.7945      0.000020
     0.7950      0.000010
     0.7955      0.000100
     0.7960      0.000060
     0.7965      0.000030
     0.7970      0.000090
     0.7975      0.000090
     0.7980      0.000060
     0.7985      0.000050
     0.7990      0.000050
     0.7995      0.000060
     0.8000      0.000130
     0.8005      0.000000
     0.8010      0.000050
     0.8015      0.000020
     0.8020      0.000000
     0.8025      0.000000
     0.8030      0.000000
     0.8035      0.000000
     0.8040      0.000120
     0.8045      0.000030
     0.8050      0.000120
     0.8055      0.000050
     0.8060      0.000010
     0.8065      0.000000
     0.8070      0.000070
     0.8075      0.000050
     0.8080      0.000040
     0.8085      0.000050
     0.8090      0.000010
     0.8095      0.000060
     0.8100      0.000000
     0.8105      0.000000
     0.8110      0.000010
     0.8115      0.000030
     0.8120      0.000000
     0.8125      0.000080
     0.8130      0.000050
     0.8135      0.000020
     0.8140      0.000000
     0.8145      0.000010
     0.8150      0.000060
     0.8155      0.000010
     0.8160      0.000050
     0.8165      0.000010
     0.8170      0.000040
     0.8175      0.000090
     0.8180      0.000010
     0.8185      0.000010
     0.8190      0.000010
     0.8195      0.000090
     0.8200      0.000010
     0.8205      0.000050
     0.8210      0.000020
     0.8215      0.000030
     0.8220      0.000050
     0.8225      0.000040
     0.8230      0.000000
     0.8235      0.000000
     0.8240      0.000040
     0.8245      0.000090
     0.8250      0.000010
     0.8255      0.000060
     0.8260      0.000020
     0.8265      0.000080
     0.8270      0.000060
     0.8275      0.000030
     0.8280      0.000000
     0.8285      0.000000
     0.8290      0.000050
     0.8295      0.000000
     0.8300      0.000090
     0.8305      0.000000
     0.8310      0.000000
     0.8315      0.000140
     0.8320      0.000110
     0.8325      0.000090
     0.8330      0.000200
     0.8335      0.000540
     0.8340      0.000720
     0.8345      0.000210
     0.8350      0.000060
     0.8355      0.000080
     0.8360      0.000090
     0.8365      0.000090
     0.8370      0.000060
     0.8375      0.000080
     0.8380      0.000010
     0.8385      0.000090
     0.8390      0.000030
     0.8395      0.000050
     0.8400      0.000020
     0.8405      0.000070
     0.8410      0.000050
     0.8415      0.000070
     0.8420      0.000090
     0.8425      0.000070
     0.8430      0.000070
     0.8435      0.000010
     0.8440      0.000110
     0.8445      0.000110
     0.8450      0.000160
     0.8455      0.000290
     0.8460      0.000870
     0.8465      0.001810
     0.8470      0.000570
     0.8475      0.000250
     0.8480      0.000100
     0.8485      0.000090
     0.8490      0.000090
     0.8495      0.000000
     0.8500      0.000040
     0.8505      0.000010
     0.8510      0.000040
     0.8515      0.000020
     0.8520      0.000000
     0.8525      0.000000
     0.8530      0.000090
     0.8535      0.000030
     0.8540      0.000010
     0.8545      0.000050
     0.8550      0.000030
     0.8555      0.000060
     0.8560      0.000070
     0.8565      0.000000
     0.8570      0.000050
     0.8575      0.000090
     0.8580      0.000130
     0.8585      0.000180
     0.8590      0.000380
     0.8595      0.001030
     0.8600      0.003100
     0.8605      0.001260
     0.8610      0.000360
     0.8615      0.000150
     0.8620      0.000100
     0.8625      0.000080
     0.8630      0.000020
     0.8635      0.000020
     0.8640      0.000010
     0.8645      0.000010
     0.8650      0.000000
     0.8655      0.000000
     0.8660      0.000000
     0.8665      0.000000
     0.8670      0.000000
     0.8675      0.000010
     0.8680      0.000000
     0.8685      0.000000
     0.8690      0.000040
     0.8695      0.000010
     0.8700      0.000030
     0.8705      0.000000
     0.8710      0.000000
     0.8715      0.000000
     0.8720      0.000060
     0.8725      0.000110
     0.8730      0.000100
     0.8735      0.000150
     0.8740      0.000090
     0.8745      0.000070
