# author : Oliver Czoske
# source : Ester Aranzana
# date_created : 2017-11-20
# date_modified : 2025-12-06
# status : Measured at 80 K
# wavelength_unit : um
# changes :
# - 2022-03-17 (KL) Updated to match Rics email
# - 2023-06-06 (RD) Modified profiles after discussion with Schott
# - 2025-12-16 (OC) Replaced with measured values
#
 wavelength  transmission
     0.4990      0.000000
     0.4995      0.000000
     0.5000      0.005950
     0.5005      0.000000
     0.5010      0.000130
     0.5015      0.000150
     0.5020      0.001560
     0.5025      0.005870
     0.5030      0.003240
     0.5035      0.008610
     0.5040      0.008390
     0.5045      0.013180
     0.5050      0.017010
     0.5055      0.013450
     0.5060      0.016530
     0.5065      0.027990
     0.5070      0.022470
     0.5075      0.026570
     0.5080      0.027810
     0.5085      0.020130
     0.5090      0.007020
     0.5095      0.012460
     0.5100      0.026930
     0.5105      0.024930
     0.5110      0.020790
     0.5115      0.019080
     0.5120      0.026560
     0.5125      0.015120
     0.5130      0.022420
     0.5135      0.014890
     0.5140      0.005370
     0.5145      0.006220
     0.5150      0.013290
     0.5155      0.017760
     0.5160      0.016410
     0.5165      0.006660
     0.5170      0.009980
     0.5175      0.003560
     0.5180      0.007710
     0.5185      0.008820
     0.5190      0.007800
     0.5195      0.006650
     0.5200      0.007320
     0.5205      0.001610
     0.5210      0.009270
     0.5215      0.011750
     0.5220      0.004780
     0.5225      0.005310
     0.5230      0.000000
     0.5235      0.000120
     0.5240      0.000060
     0.5245      0.003300
     0.5250      0.000000
     0.5255      0.000000
     0.5260      0.002820
     0.5265      0.001330
     0.5270      0.004210
     0.5275      0.002770
     0.5280      0.007900
     0.5285      0.008820
     0.5290      0.000840
     0.5295      0.001230
     0.5300      0.000000
     0.5305      0.004830
     0.5310      0.008100
     0.5315      0.013230
     0.5320      0.035810
     0.5325      0.094420
     0.5330      0.175350
     0.5335      0.228260
     0.5340      0.245470
     0.5345      0.266500
     0.5350      0.272790
     0.5355      0.241240
     0.5360      0.223800
     0.5365      0.236840
     0.5370      0.239540
     0.5375      0.191030
     0.5380      0.138820
     0.5385      0.109010
     0.5390      0.113590
     0.5395      0.142230
     0.5400      0.221940
     0.5405      0.352470
     0.5410      0.444000
     0.5415      0.468320
     0.5420      0.492530
     0.5425      0.546720
     0.5430      0.577390
     0.5435      0.537830
     0.5440      0.499950
     0.5445      0.493470
     0.5450      0.469970
     0.5455      0.387870
     0.5460      0.299190
     0.5465      0.237520
     0.5470      0.217590
     0.5475      0.238680
     0.5480      0.305980
     0.5485      0.424640
     0.5490      0.524640
     0.5495      0.535890
     0.5500      0.482700
     0.5505      0.455640
     0.5510      0.484660
     0.5515      0.535860
     0.5520      0.561980
     0.5525      0.534520
     0.5530      0.482400
     0.5535      0.450940
     0.5540      0.460000
     0.5545      0.484220
     0.5550      0.495820
     0.5555      0.483380
     0.5560      0.468990
     0.5565      0.475010
     0.5570      0.505190
     0.5575      0.516640
     0.5580      0.492340
     0.5585      0.447990
     0.5590      0.431350
     0.5595      0.466480
     0.5600      0.531150
     0.5605      0.478960
     0.5610      0.304220
     0.5615      0.176430
     0.5620      0.116880
     0.5625      0.092860
     0.5630      0.090360
     0.5635      0.092950
     0.5640      0.111780
     0.5645      0.163310
     0.5650      0.260370
     0.5655      0.400090
     0.5660      0.502450
     0.5665      0.523670
     0.5670      0.521520
     0.5675      0.525710
     0.5680      0.499980
     0.5685      0.439640
     0.5690      0.372730
     0.5695      0.332020
     0.5700      0.325120
     0.5705      0.353960
     0.5710      0.429220
     0.5715      0.542490
     0.5720      0.655120
     0.5725      0.669750
     0.5730      0.594740
     0.5735      0.490330
     0.5740      0.405170
     0.5745      0.348520
     0.5750      0.307550
     0.5755      0.280120
     0.5760      0.261890
     0.5765      0.256320
     0.5770      0.254050
     0.5775      0.252590
     0.5780      0.240820
     0.5785      0.222790
     0.5790      0.207830
     0.5795      0.205850
     0.5800      0.221600
     0.5805      0.268620
     0.5810      0.362220
     0.5815      0.502490
     0.5820      0.634040
     0.5825      0.680460
     0.5830      0.674340
     0.5835      0.631270
     0.5840      0.534370
     0.5845      0.397830
     0.5850      0.289560
     0.5855      0.233410
     0.5860      0.220070
     0.5865      0.253240
     0.5870      0.348020
     0.5875      0.491480
     0.5880      0.494480
     0.5885      0.332500
     0.5890      0.220420
     0.5895      0.174600
     0.5900      0.170340
     0.5905      0.195590
     0.5910      0.260120
     0.5915      0.367640
     0.5920      0.475730
     0.5925      0.509720
     0.5930      0.480720
     0.5935      0.435750
     0.5940      0.385460
     0.5945      0.339720
     0.5950      0.308350
     0.5955      0.298750
     0.5960      0.314760
     0.5965      0.350730
     0.5970      0.375160
     0.5975      0.343000
     0.5980      0.283030
     0.5985      0.236840
     0.5990      0.220570
     0.5995      0.237550
     0.6000      0.282440
     0.6005      0.352890
     0.6010      0.420680
     0.6015      0.466610
     0.6020      0.506120
     0.6025      0.531610
     0.6030      0.492270
     0.6035      0.375680
     0.6040      0.270030
     0.6045      0.218160
     0.6050      0.211150
     0.6055      0.252160
     0.6060      0.310880
     0.6065      0.272760
     0.6070      0.157230
     0.6075      0.089770
     0.6080      0.061610
     0.6085      0.052220
     0.6090      0.052270
     0.6095      0.063290
     0.6100      0.096470
     0.6105      0.178980
     0.6110      0.339450
     0.6115      0.454790
     0.6120      0.437530
     0.6125      0.381050
     0.6130      0.264990
     0.6135      0.139010
     0.6140      0.070380
     0.6145      0.041730
     0.6150      0.029060
     0.6155      0.022450
     0.6160      0.016280
     0.6165      0.010670
     0.6170      0.006690
     0.6175      0.003320
     0.6180      0.001620
     0.6185      0.001700
     0.6190      0.002260
     0.6195      0.002520
     0.6200      0.002600
     0.6205      0.000120
     0.6210      0.000240
     0.6215      0.000000
     0.6220      0.000000
     0.6225      0.000000
     0.6230      0.000000
     0.6235      0.000000
     0.6240      0.000000
     0.6245      0.000000
     0.6250      0.000000
     0.6255      0.000000
     0.6260      0.000000
     0.6265      0.000000
     0.6270      0.000000
     0.6275      0.000000
     0.6280      0.000000
     0.6285      0.000000
     0.6290      0.000000
     0.6295      0.000000
     0.6300      0.000000
     0.6305      0.000000
     0.6310      0.000400
     0.6315      0.000770
     0.6320      0.002390
     0.6325      0.004210
     0.6330      0.017060
     0.6335      0.001440
     0.6340      0.001430
     0.6345      0.000130
     0.6350      0.000170
     0.6355      0.000000
     0.6360      0.000000
     0.6365      0.000000
     0.6370      0.000000
     0.6375      0.000000
     0.6380      0.000000
     0.6385      0.000210
     0.6390      0.000210
     0.6395      0.000810
     0.6400      0.000860
     0.6405      0.000660
     0.6410      0.001110
     0.6415      0.000690
     0.6420      0.000470
     0.6425      0.000030
     0.6430      0.000000
     0.6435      0.000030
     0.6440      0.000560
     0.6445      0.000500
     0.6450      0.000480
     0.6455      0.000230
     0.6460      0.000050
     0.6465      0.000000
     0.6470      0.000000
     0.6475      0.000000
     0.6480      0.000000
     0.6485      0.000000
     0.6490      0.000000
     0.6495      0.000000
     0.6500      0.000510
     0.6505      0.001220
     0.6510      0.001040
     0.6515      0.000640
     0.6520      0.001000
     0.6525      0.001490
     0.6530      0.001670
     0.6535      0.001430
     0.6540      0.000730
     0.6545      0.000900
     0.6550      0.001310
     0.6555      0.003070
     0.6560      0.007160
     0.6565      0.014250
     0.6570      0.012680
     0.6575      0.007050
     0.6580      0.004720
     0.6585      0.004380
     0.6590      0.004610
     0.6595      0.005940
     0.6600      0.008200
     0.6605      0.011460
     0.6610      0.016340
     0.6615      0.020380
     0.6620      0.021000
     0.6625      0.020020
     0.6630      0.020460
     0.6635      0.022800
     0.6640      0.029120
     0.6645      0.043280
     0.6650      0.070390
     0.6655      0.112810
     0.6660      0.152310
     0.6665      0.168260
     0.6670      0.174080
     0.6675      0.192630
     0.6680      0.239940
     0.6685      0.331590
     0.6690      0.474170
     0.6695      0.616260
     0.6700      0.656860
     0.6705      0.605150
     0.6710      0.542150
     0.6715      0.494770
     0.6720      0.454860
     0.6725      0.408220
     0.6730      0.355110
     0.6735      0.307940
     0.6740      0.275530
     0.6745      0.260590
     0.6750      0.260730
     0.6755      0.269730
     0.6760      0.269080
     0.6765      0.241620
     0.6770      0.193040
     0.6775      0.146940
     0.6780      0.114190
     0.6785      0.095550
     0.6790      0.086750
     0.6795      0.085170
     0.6800      0.091220
     0.6805      0.107550
     0.6810      0.140440
     0.6815      0.200790
     0.6820      0.303030
     0.6825      0.446770
     0.6830      0.575840
     0.6835      0.622250
     0.6840      0.609710
     0.6845      0.594100
     0.6850      0.594020
     0.6855      0.600090
     0.6860      0.596730
     0.6865      0.579670
     0.6870      0.556880
     0.6875      0.539550
     0.6880      0.526320
     0.6885      0.502870
     0.6890      0.453300
     0.6895      0.382290
     0.6900      0.312440
     0.6905      0.260520
     0.6910      0.232040
     0.6915      0.226280
     0.6920      0.242700
     0.6925      0.283390
     0.6930      0.342810
     0.6935      0.383900
     0.6940      0.353740
     0.6945      0.271320
     0.6950      0.198240
     0.6955      0.152420
     0.6960      0.128690
     0.6965      0.119230
     0.6970      0.120250
     0.6975      0.129980
     0.6980      0.147850
     0.6985      0.172620
     0.6990      0.200160
     0.6995      0.225780
     0.7000      0.246550
     0.7005      0.263610
     0.7010      0.275170
     0.7015      0.270030
     0.7020      0.241310
     0.7025      0.197430
     0.7030      0.154910
     0.7035      0.123550
     0.7040      0.104250
     0.7045      0.095160
     0.7050      0.094600
     0.7055      0.103220
     0.7060      0.121350
     0.7065      0.148860
     0.7070      0.177600
     0.7075      0.189950
     0.7080      0.173810
     0.7085      0.142900
     0.7090      0.115060
     0.7095      0.096020
     0.7100      0.083750
     0.7105      0.076760
     0.7110      0.073680
     0.7115      0.073430
     0.7120      0.075050
     0.7125      0.077810
     0.7130      0.082740
     0.7135      0.087780
     0.7140      0.089110
     0.7145      0.083310
     0.7150      0.071210
     0.7155      0.057310
     0.7160      0.046360
     0.7165      0.039610
     0.7170      0.037020
     0.7175      0.037520
     0.7180      0.038920
     0.7185      0.035860
     0.7190      0.026250
     0.7195      0.016190
     0.7200      0.009540
     0.7205      0.005950
     0.7210      0.004170
     0.7215      0.003260
     0.7220      0.002780
     0.7225      0.002650
     0.7230      0.002670
     0.7235      0.003070
     0.7240      0.003930
     0.7245      0.005130
     0.7250      0.005750
     0.7255      0.004680
     0.7260      0.003040
     0.7265      0.001830
     0.7270      0.001260
     0.7275      0.000890
     0.7280      0.000840
     0.7285      0.000800
     0.7290      0.000650
     0.7295      0.000370
     0.7300      0.000120
     0.7305      0.000000
     0.7310      0.000000
     0.7315      0.000000
     0.7320      0.000000
     0.7325      0.000000
     0.7330      0.000000
     0.7335      0.000000
     0.7340      0.000000
     0.7345      0.000000
     0.7350      0.000000
     0.7355      0.000000
     0.7360      0.000000
     0.7365      0.000000
     0.7370      0.000000
     0.7375      0.000000
     0.7380      0.000000
     0.7385      0.000000
     0.7390      0.000000
     0.7395      0.000000
     0.7400      0.000000
     0.7405      0.000000
     0.7410      0.000000
     0.7415      0.000000
     0.7420      0.000000
     0.7425      0.000000
     0.7430      0.000000
     0.7435      0.000040
     0.7440      0.000180
     0.7445      0.000250
     0.7450      0.000220
     0.7455      0.000330
     0.7460      0.000210
     0.7465      0.000160
     0.7470      0.000220
     0.7475      0.000180
     0.7480      0.000180
     0.7485      0.000150
     0.7490      0.000200
     0.7495      0.000330
     0.7500      0.000530
     0.7505      0.000420
     0.7510      0.000230
     0.7515      0.000140
     0.7520      0.000230
     0.7525      0.000210
     0.7530      0.000230
     0.7535      0.000110
     0.7540      0.000130
     0.7545      0.000000
     0.7550      0.000010
     0.7555      0.000000
     0.7560      0.000000
     0.7565      0.000000
     0.7570      0.000010
     0.7575      0.000000
     0.7580      0.000000
     0.7585      0.000000
     0.7590      0.000000
     0.7595      0.000000
     0.7600      0.000000
     0.7605      0.000000
     0.7610      0.000000
     0.7615      0.000000
     0.7620      0.000000
     0.7625      0.000000
     0.7630      0.000000
     0.7635      0.000000
     0.7640      0.000110
     0.7645      0.000240
     0.7650      0.000170
     0.7655      0.000100
     0.7660      0.000160
     0.7665      0.000080
     0.7670      0.000050
     0.7675      0.000090
     0.7680      0.000080
     0.7685      0.000220
     0.7690      0.000280
     0.7695      0.000330
     0.7700      0.000420
     0.7705      0.000320
     0.7710      0.000410
     0.7715      0.000520
     0.7720      0.000550
     0.7725      0.000650
     0.7730      0.000580
     0.7735      0.000680
     0.7740      0.000570
     0.7745      0.000500
     0.7750      0.000470
     0.7755      0.000310
     0.7760      0.000300
     0.7765      0.000290
     0.7770      0.000280
     0.7775      0.000270
     0.7780      0.000260
     0.7785      0.000310
     0.7790      0.000270
     0.7795      0.000220
     0.7800      0.000180
     0.7805      0.000210
     0.7810      0.000210
     0.7815      0.000260
     0.7820      0.000320
     0.7825      0.000350
     0.7830      0.000320
     0.7835      0.000300
     0.7840      0.000270
     0.7845      0.000280
     0.7850      0.000180
     0.7855      0.000190
     0.7860      0.000200
     0.7865      0.000180
     0.7870      0.000280
     0.7875      0.000220
     0.7880      0.000300
     0.7885      0.000370
     0.7890      0.000460
     0.7895      0.000500
     0.7900      0.000620
     0.7905      0.000610
     0.7910      0.000630
     0.7915      0.000600
     0.7920      0.000670
     0.7925      0.000610
     0.7930      0.000490
     0.7935      0.000510
     0.7940      0.000570
     0.7945      0.000600
     0.7950      0.000470
     0.7955      0.000440
     0.7960      0.000550
     0.7965      0.000520
     0.7970      0.000480
     0.7975      0.000470
     0.7980      0.000430
     0.7985      0.000330
     0.7990      0.000380
     0.7995      0.000300
     0.8000      0.000350
     0.8005      0.000260
     0.8010      0.000280
     0.8015      0.000270
     0.8020      0.000300
     0.8025      0.000230
     0.8030      0.000290
     0.8035      0.000370
     0.8040      0.000360
     0.8045      0.000180
     0.8050      0.000300
     0.8055      0.000200
     0.8060      0.000140
     0.8065      0.000140
     0.8070      0.000040
     0.8075      0.000070
     0.8080      0.000020
     0.8085      0.000050
     0.8090      0.000030
     0.8095      0.000090
     0.8100      0.000150
     0.8105      0.000140
     0.8110      0.000160
     0.8115      0.000080
     0.8120      0.000150
     0.8125      0.000220
     0.8130      0.000190
     0.8135      0.000250
     0.8140      0.000210
     0.8145      0.000260
     0.8150      0.000250
     0.8155      0.000180
     0.8160      0.000180
     0.8165      0.000200
     0.8170      0.000190
     0.8175      0.000100
     0.8180      0.000050
     0.8185      0.000040
     0.8190      0.000010
     0.8195      0.000080
     0.8200      0.000080
     0.8205      0.000130
     0.8210      0.000150
     0.8215      0.000200
     0.8220      0.000220
     0.8225      0.000210
     0.8230      0.000200
     0.8235      0.000190
     0.8240      0.000190
     0.8245      0.000110
     0.8250      0.000070
     0.8255      0.000070
     0.8260      0.000100
     0.8265      0.000110
     0.8270      0.000080
     0.8275      0.000100
     0.8280      0.000210
     0.8285      0.000180
     0.8290      0.000210
     0.8295      0.000270
     0.8300      0.000320
     0.8305      0.000290
     0.8310      0.000280
     0.8315      0.000280
     0.8320      0.000260
     0.8325      0.000170
     0.8330      0.000170
     0.8335      0.000140
     0.8340      0.000060
     0.8345      0.000170
     0.8350      0.000140
     0.8355      0.000210
     0.8360      0.000160
     0.8365      0.000220
     0.8370      0.000270
     0.8375      0.000230
     0.8380      0.000240
     0.8385      0.000220
     0.8390      0.000320
     0.8395      0.000220
     0.8400      0.000290
     0.8405      0.000280
     0.8410      0.000220
     0.8415      0.000230
     0.8420      0.000210
     0.8425      0.000210
     0.8430      0.000200
     0.8435      0.000140
     0.8440      0.000220
     0.8445      0.000150
     0.8450      0.000240
     0.8455      0.000160
     0.8460      0.000190
     0.8465      0.000180
     0.8470      0.000190
     0.8475      0.000100
     0.8480      0.000210
     0.8485      0.000080
     0.8490      0.000120
     0.8495      0.000080
     0.8500      0.000130
     0.8505      0.000090
     0.8510      0.000130
     0.8515      0.000140
     0.8520      0.000120
     0.8525      0.000110
     0.8530      0.000100
     0.8535      0.000090
     0.8540      0.000080
     0.8545      0.000060
     0.8550      0.000070
     0.8555      0.000030
     0.8560      0.000010
     0.8565      0.000020
     0.8570      0.000010
     0.8575      0.000010
     0.8580      0.000020
     0.8585      0.000070
     0.8590      0.000040
     0.8595      0.000020
     0.8600      0.000000
     0.8605      0.000000
     0.8610      0.000070
     0.8615      0.000020
     0.8620      0.000000
     0.8625      0.000000
     0.8630      0.000000
     0.8635      0.000000
     0.8640      0.000000
     0.8645      0.000000
     0.8650      0.000000
     0.8655      0.000000
     0.8660      0.000000
     0.8665      0.000000
     0.8670      0.000000
     0.8675      0.000000
     0.8680      0.000020
     0.8685      0.000020
     0.8690      0.000000
     0.8695      0.000000
     0.8700      0.000000
     0.8705      0.000030
     0.8710      0.000000
     0.8715      0.000000
     0.8720      0.000070
     0.8725      0.000110
     0.8730      0.000090
     0.8735      0.000080
     0.8740      0.000080
     0.8745      0.000090
     0.8750      0.000050
     0.8755      0.000130
     0.8760      0.000060
